I(mA)          V(mV)          f.s. oscilloscopio(mV)        ris multimetro(mA)
0.02           60             50                            0.01
0.03           80             50                            0.01
0.04           100            50                            0.01
0.06           120            50                            0.01
0.09           140            50                            0.01
0.13           160            50                            0.01
0.18           180            50                            0.01
0.26           200            50                            0.01
0.38           220            50                            0.01
0.52           240            50                            0.01
0.75           260            50                            0.01
1.05           280            50                            0.01
1.46           300            50                            0.01
1.94           320            100                           0.01
2.66           340            100                           0.01
3.34           360            100                           0.01
4.40           380            100                           0.01